wavelength,transmission
200,54.1209
201,88.3799
202,72.107
203,77.6874
204,75.8874
205,90.8774
206,24.5961
207,0.1961
208,0.0353
209,0.0006
210,0.0005
211,0
212,0
213,0
214,0
215,0
216,0
217,0
218,0
219,0
220,0
221,0
222,0
223,0
224,0
225,0
226,0.0012
227,0.1169
228,0.025
229,2.424
230,0.8548
231,0.6981
232,1.523
233,6.316
234,12.481
235,1.0585
236,11.6964
237,20.6805
238,1.4735
239,3.6473
240,31.8399
241,3.052
242,2.0351
243,84.5434
244,10.3898
245,1.6376
246,29.1016
247,52.0348
248,1.4499
249,6.6197
250,16.842
251,2.1342
252,0.4287
253,0.0289
254,0.0095
255,0.0005
256,0.0002
257,0.0004
258,0.0001
259,0
260,0
261,0.0001
262,0
263,0
264,0
265,0.0001
266,0
267,0.0001
268,0.0002
269,0.0002
270,0.0002
271,0.0005
272,0.0032
273,0.0028
274,0.0051
275,0.0348
276,0.2939
277,0.6422
278,14.296
279,47.8525
280,60.0128
281,61.6532
282,73.7961
283,63.0683
284,93.3515
285,80.4885
286,86.4117
287,73.1593
288,90.697
289,90.2414
290,88.0794
291,83.2176
292,83.5852
293,92.8914
294,87.8801
295,91.1219
296,86.0278
297,87.4808
298,93.4588
299,88.2924
300,93.0259
301,89.0669
302,87.0493
303,95.3382
304,89.1701
305,89.826
306,92.437
307,85.3943
308,92.0902
309,93.2214
310,84.1281
311,90.8106
312,91.4713
313,83.8715
314,91.6918
315,94.3332
316,87.4399
317,93.0618
318,93.274
319,84.2961
320,87.1997
321,94.734
322,96.0525
323,91.7306
324,76.6809
325,68.021
326,75.7035
327,81.6886
328,71.8566
329,72.9169
330,89.7613
331,94.3999
332,88.1072
333,92.4122
334,89.8154
335,77.3197
336,77.6386
337,90.5801
338,95.7259
339,92.9724
340,95.4614
341,93.0808
342,84.6749
343,85.0507
344,93.447
345,95.3267
346,92.2725
347,94.4781
348,95.0179
349,88.4863
350,86.2085
351,93.4828
352,95.148
353,91.3706
354,94.521
355,94.5864
356,88.951
357,90.6831
358,95.9043
359,93.9441
360,92.6274
361,95.6569
362,94.3518
363,91.2342
364,93.6064
365,96.0862
366,93.6049
367,92.9103
368,95.376
369,94.6136
370,92.2159
371,93.7655
372,96.0893
373,94.2524
374,92.3185
375,93.6905
376,94.746
377,93.4986
378,93.5609
379,95.5345
380,95.5846
381,93.5072
382,92.7194
383,93.2563
384,93.1269
385,93.3858
386,95.2544
387,95.3457
388,91.1292
389,87.4317
390,89.08
391,94.0733
392,95.2796
393,91.3976
394,88.9643
395,91.2133
396,95.0192
397,95.806
398,94.261
399,93.7952
400,94.6859
401,94.8333
402,93.8662
403,93.5428
404,94.5246
405,95.4176
406,95.0527
407,94.1455
408,93.7925
409,93.8675
410,93.7212
411,93.5087
412,93.8669
413,94.689
414,95.1178
415,94.7869
416,94.3159
417,94.2638
418,94.3212
419,93.9437
420,93.3727
421,93.408
422,94.2793
423,95.2431
424,95.4679
425,95.0823
426,94.883
427,95.1827
428,95.4425
429,95.0916
430,94.4005
431,94.1738
432,94.745
433,95.5915
434,95.9608
435,95.7542
436,95.5342
437,95.6948
438,95.9505
439,95.7419
440,95.0261
441,94.4109
442,94.4646
443,95.1027
444,95.6986
445,95.7798
446,95.5298
447,95.4755
448,95.7917
449,96.0681
450,95.7897
451,95.0007
452,94.3316
453,94.3566
454,95.0218
455,95.6818
456,95.7181
457,95.1611
458,94.6104
459,94.5635
460,94.9121
461,95.0622
462,94.5586
463,93.608
464,92.9129
465,93.0309
466,93.9077
467,94.9148
468,95.354
469,95.0516
470,94.4609
471,94.1774
472,94.4129
473,94.8744
474,95.0703
475,94.7724
476,94.2167
477,93.864
478,93.9987
479,94.5314
480,95.1094
481,95.4143
482,95.4004
483,95.2651
484,95.2202
485,95.3029
486,95.386
487,95.3426
488,95.1934
489,95.0931
490,95.1786
491,95.4346
492,95.6984
493,95.7994
494,95.7094
495,95.5567
496,95.4925
497,95.5396
498,95.5655
499,95.411
500,95.0665
501,94.7253
502,94.6458
503,94.9357
504,95.428
505,95.7572
506,95.6218
507,95.0415
508,94.3717
509,94.0443
510,94.2513
511,94.7953
512,95.2009
513,95.0552
514,94.3551
515,93.5451
516,93.1972
517,93.6165
518,94.6289
519,95.6494
520,96.0454
521,95.6049
522,94.7122
523,94.042
524,94.0704
525,94.7805
526,95.6878
527,96.1687
528,95.9269
529,95.2153
530,94.5912
531,94.4565
532,94.7792
533,95.169
534,95.2427
535,94.9928
536,94.7947
537,95.0184
538,95.6146
539,96.0711
540,95.8815
541,95.1598
542,94.6481
543,94.9431
544,95.6816
545,95.7161
546,94.8018
547,94.7718
548,95.8288
549,84.8634
550,49.5219
551,20.9843
552,8.8282
553,4.1451
554,2.1798
555,1.2471
556,0.743
557,0.4386
558,0.2473
559,0.133
560,0.0702
561,0.0376
562,0.021
563,0.0123
564,0.0076
565,0.005
566,0.0035
567,0.0026
568,0.002
569,0.0016
570,0.0014
571,0.0012
572,0.001
573,0.0008
574,0.0006
575,0.0004
576,0.0003
577,0.0002
578,0.0001
579,0.0001
580,0.0001
581,0
582,0
583,0
584,0
585,0
586,0
587,0
588,0
589,0
590,0
591,0
592,0
593,0
594,0
595,0
596,0
597,0
598,0
599,0
600,0
601,0
602,0
603,0
604,0
605,0
606,0
607,0
608,0
609,0
610,0
611,0
612,0
613,0
614,0
615,0
616,0
617,0
618,0
619,0
620,0
621,0
622,0
623,0
624,0
625,0
626,0
627,0
628,0
629,0
630,0
631,0
632,0
633,0
634,0
635,0
636,0
637,0
638,0
639,0
640,0
641,0
642,0
643,0
644,0
645,0
646,0
647,0
648,0
649,0
650,0
651,0
652,0
653,0
654,0
655,0
656,0
657,0
658,0
659,0
660,0
661,0
662,0
663,0
664,0
665,0
666,0.0001
667,0
668,0
669,0
670,0
671,0
672,0
673,0
674,0
675,0
676,0
677,0
678,0
679,0
680,0
681,0
682,0
683,0
684,0
685,0
686,0
687,0
688,0
689,0
690,0
691,0
692,0
693,0
694,0
695,0
696,0
697,0
698,0
699,0
700,0.0003
701,0.0003
702,0.0001
703,0
704,0
705,0
706,0
707,0
708,0
709,0
710,0
711,0
712,0
713,0
714,0.0001
715,0.0001
716,0.0005
717,0.0005
718,0.0002
719,0.0001
720,0
721,0
722,0
723,0
724,0
725,0
726,0
727,0
728,0
729,0
730,0
731,0
732,0
733,0
734,0.0001
735,0.0001
736,0.0002
737,0.0004
738,0.0003
739,0.0002
740,0.0001
741,0.0001
742,0.0001
743,0
744,0
745,0
746,0
747,0
748,0
749,0
750,0
751,0
752,0
753,0
754,0
755,0.0001
756,0.0001
757,0.0001
758,0.0001
759,0.0002
760,0.0002
761,0.0004
762,0.0005
763,0.0006
764,0.0005
765,0.0004
766,0.0003
767,0.0002
768,0.0002
769,0.0002
770,0.0001
771,0.0001
772,0.0001
773,0.0001
774,0.0001
775,0.0001
776,0.0001
777,0.0001
778,0.0001
779,0.0001
780,0.0002
781,0.0002
782,0.0002
783,0.0003
784,0.0003
785,0.0004
786,0.0006
787,0.0008
788,0.0011
789,0.0015
790,0.0021
791,0.0027
792,0.0032
793,0.0032
794,0.003
795,0.0026
796,0.0022
797,0.002
798,0.0018
799,0.0016
800,0.0015
801,0.0015
802,0.0015
803,0.0015
804,0.0016
805,0.0017
806,0.0019
807,0.0021
808,0.0023
809,0.0027
810,0.0031
811,0.0038
812,0.0046
813,0.0057
814,0.0073
815,0.0095
816,0.0125
817,0.017
818,0.0233
819,0.0323
820,0.0448
821,0.0606
822,0.0782
823,0.0939
824,0.1043
825,0.1087
826,0.1089
827,0.1076
828,0.1068
829,0.1074
830,0.1102
831,0.1156
832,0.1242
833,0.1365
834,0.1538
835,0.1774
836,0.2096
837,0.2539
838,0.3153
839,0.402
840,0.527
841,0.7114
842,0.9914
843,1.4301
844,2.143
845,3.3475
846,5.465
847,9.3089
848,16.3207
849,28.2192
850,44.173
851,57.4237
852,62.7378
853,63.2558
854,63.6166
855,65.934
856,70.5917
857,76.8617
858,82.7605
859,85.2889
860,82.2746
861,74.4378
862,64.6252
863,55.3715
864,47.8493
865,42.2528
866,38.377
867,35.9497
868,34.7524
869,34.6545
870,35.6121
871,37.6618
872,40.9119
873,45.523
874,51.6684
875,59.4282
876,68.5933
877,78.3829
878,87.2814
879,93.354
880,95.2202
881,92.9405
882,87.8668
883,81.7012
884,75.7464
885,70.728
886,66.9395
887,64.4437
888,63.2075
889,63.1718
890,64.2782
891,66.467
892,69.6545
893,73.6915
894,78.3122
895,83.082
896,87.396
897,90.5559
898,91.9591
899,91.3208
900,88.7905
901,84.8781
902,80.2439
903,75.4991
904,71.093
905,67.3032
906,64.2733
907,62.0604
908,60.6741
909,60.1062
910,60.3451
911,61.3816
912,63.2086
913,65.8121
914,69.1564
915,73.1605
916,77.6706
917,82.4292
918,87.0629
919,91.1026
920,94.0598
921,95.545
922,95.387
923,93.687
924,90.7773
925,87.1105
926,83.1422
927,79.2516
928,75.7092
929,72.6868
930,70.28
931,68.5332
932,67.4602
933,67.0591
934,67.3199
935,68.2272
936,69.7595
937,71.8823
938,74.5397
939,77.6408
940,81.0484
941,84.5669
942,87.9428
943,90.8799
944,93.0808
945,94.2985
946,94.3939
947,93.3706
948,91.3712
949,88.6395
950,85.4627
951,82.1202
952,78.8484
953,75.8272
954,73.1801
955,70.9854
956,69.287
957,68.1068
958,67.4527
959,67.3248
960,67.7184
961,68.6247
962,70.0299
963,71.9116
964,74.2336
965,76.9393
966,79.9436
967,83.1264
968,86.3302
969,89.3629
970,92.0118
971,94.0678
972,95.3598
973,95.7835
974,95.3225
975,94.0518
976,92.1189
977,89.7151
978,87.0438
979,84.2949
980,81.6279
981,79.167
982,77.0021
983,75.1942
984,73.7806
985,72.7828
986,72.21
987,72.0635
988,72.3385
989,73.0245
990,74.1048
991,75.5543
992,77.3369
993,79.4018
994,81.6805
995,84.083
996,86.4988
997,88.7982
998,90.8403
999,92.4854
1000,93.6118
1001,94.132
1002,94.0062
1003,93.249
1004,91.9256
1005,90.1415
1006,88.0252
1007,85.7123
1008,83.332
1009,80.9971
1010,78.8001
1011,76.8128
1012,75.0869
1013,73.6589
1014,72.552
1015,71.7805
1016,71.3516
1017,71.2676
1018,71.5265
1019,72.1229
1020,73.0474
1021,74.2849
1022,75.8145
1023,77.6061
1024,79.6189
1025,81.7987
1026,84.0772
1027,86.3714
1028,88.585
1029,90.6133
1030,92.3512
1031,93.7016
1032,94.5871
1033,94.9586
1034,94.8022
1035,94.1407
1036,93.0296
1037,91.5495
1038,89.7962
1039,87.8712
1040,85.8711
1041,83.8833
1042,81.9821
1043,80.2277
1044,78.6666
1045,77.3332
1046,76.2517
1047,75.4381
1048,74.9019
1049,74.6475
1050,74.6754
1051,74.9818
1052,75.5598
1053,76.3984
1054,77.4818
1055,78.7883
1056,80.2897
1057,81.9495
1058,83.7227
1059,85.5548
1060,87.3824
1061,89.1348
1062,90.7368
1063,92.1137
1064,93.1966
1065,93.9288
1066,94.2707
1067,94.2047
1068,93.7367
1069,92.895
1070,91.7272
1071,90.295
1072,88.6679
1073,86.9182
1074,85.1151
1075,83.3218
1076,81.5931
1077,79.9748
1078,78.5036
1079,77.208
1080,76.1094
1081,75.2228
1082,74.5586
1083,74.1229
1084,73.9187
1085,73.9461
1086,74.2028
1087,74.6842
1088,75.3829
1089,76.2886
1090,77.3874
1091,78.6613
1092,80.0873
1093,81.6364
1094,83.2743
1095,84.9598
1096,86.6465
1097,88.2832
1098,89.8151
1099,91.1867
1100,92.3466
1101,93.2412
1102,93.8489
1103,94.1475
1104,94.129
1105,93.8003
1106,93.1823
1107,92.3081
1108,91.2198
1109,89.9653
1110,88.5951
1111,87.1592
1112,85.7047
1113,84.2742
1114,82.905
1115,81.6289
1116,80.4717
1117,79.4541
1118,78.5922
1119,77.8977
1120,77.3792
1121,77.0419
1122,76.8887
1123,76.92
1124,77.1342
1125,77.5274
1126,78.0936
1127,78.8244
1128,79.7087
1129,80.7322
1130,81.8774
1131,83.1228
1132,84.4432
1133,85.809
1134,87.1869
1135,88.5404
1136,89.8303
1137,91.0166
1138,92.0597
1139,92.9229
1140,93.5745
1141,93.9894
1142,94.1514
1143,94.0542
1144,93.7016
1145,93.1073
1146,92.2936
1147,91.2902
1148,90.1316
1149,88.8551
1150,87.499
1151,86.1009
1152,84.6956
1153,83.3152
1154,81.9879
1155,80.7376
1156,79.5848
1157,78.5458
1158,77.6339
1159,76.8591
1160,76.2291
1161,75.7493
1162,75.4231
1163,75.2523
1164,75.2374
1165,75.3774
1166,75.6701
1167,76.1118
1168,76.6974
1169,77.4203
1170,78.2721
1171,79.2421
1172,80.3176
1173,81.4832
1174,82.7209
1175,84.01
1176,85.3269
1177,86.6456
1178,87.9379
1179,89.1743
1180,90.3249
1181,91.3602
1182,92.2526
1183,92.978
1184,93.5164
1185,93.8539
1186,93.9828
1187,93.9022
1188,93.6183
1189,93.1437
1190,92.4963
1191,91.6989
1192,90.7771
1193,89.7587
1194,88.6719
1195,87.5447
1196,86.4036
1197,85.2732
1198,84.1758
1199,83.1311
1200,82.1558
1201,81.2644
1202,80.4687
1203,79.7783
1204,79.2007
1205,78.7418
1206,78.4055
1207,78.1947
1208,78.1105
1209,78.1532
1210,78.3217
1211,78.6139
1212,79.0263
1213,79.5545
1214,80.1925
1215,80.9328
1216,81.7664
1217,82.6827
1218,83.669
1219,84.7107
1220,85.7915
1221,86.8931
1222,87.9952
1223,89.0765
1224,90.1145
1225,91.0862
1226,91.9688
1227,92.7409
1228,93.3824
1229,93.8766
1230,94.2098
1231,94.3727
1232,94.3607
1233,94.1739
1234,93.8174
1235,93.3006
1236,92.6371
1237,91.8436
1238,90.9394
1239,89.9455
1240,88.8835
1241,87.7751
1242,86.6416
1243,85.503
1244,84.3778
1245,83.2829
1246,82.2331
1247,81.2415
1248,80.3193
1249,79.476
1250,78.7192
1251,78.0554
1252,77.4895
1253,77.0253
1254,76.6655
1255,76.4121
1256,76.2659
1257,76.2274
1258,76.2959
1259,76.4703
1260,76.7488
1261,77.1288
1262,77.6068
1263,78.1788
1264,78.8396
1265,79.583
1266,80.402
1267,81.2882
1268,82.2319
1269,83.2224
1270,84.2474
1271,85.2935
1272,86.3462
1273,87.3898
1274,88.408
1275,89.384
1276,90.3008
1277,91.1419
1278,91.8918
1279,92.5361
1280,93.0625
1281,93.4611
1282,93.7245
1283,93.8487
1284,93.8327
1285,93.6786
1286,93.3919
1287,92.9807
1288,92.4556
1289,91.8294
1290,91.1163
1291,90.3314
1292,89.4905
1293,88.6094
1294,87.7038
1295,86.7884
1296,85.8773
1297,84.9833
1298,84.1184
1299,83.2928
1300,82.516
1301,81.796
1302,81.1397
1303,80.5527
1304,80.0401
1305,79.6055
1306,79.252
1307,78.9819
1308,78.7967
1309,78.6973
1310,78.6839
1311,78.7562
1312,78.9134
1313,79.1541
1314,79.476
1315,79.8768
1316,80.353
1317,80.9006
1318,81.5152
1319,82.1911
1320,82.9221
1321,83.7012
1322,84.5204
1323,85.3708
1324,86.2429
1325,87.1261
1326,88.0092
1327,88.8805
1328,89.7277
1329,90.5384
1330,91.3001
1331,92.0008
1332,92.6289
1333,93.1737
1334,93.6259
1335,93.9775
1336,94.2223
1337,94.3561
1338,94.3769
1339,94.2846
1340,94.0814
1341,93.7715
1342,93.361
1343,92.8577
1344,92.2706
1345,91.61
1346,90.887
1347,90.113
1348,89.2997
1349,88.4588
1350,87.6016
1351,86.739
1352,85.8812
1353,85.0378
1354,84.2176
1355,83.4284
1356,82.6774
1357,81.9707
1358,81.3139
1359,80.7117
1360,80.1679
1361,79.686
1362,79.2686
1363,78.9179
1364,78.6356
1365,78.4227
1366,78.2801
1367,78.208
1368,78.2064
1369,78.2748
1370,78.4124
1371,78.6181
1372,78.8903
1373,79.227
1374,79.6259
1375,80.0842
1376,80.5986
1377,81.1655
1378,81.7807
1379,82.4394
1380,83.1364
1381,83.8658
1382,84.6213
1383,85.396
1384,86.1824
1385,86.9728
1386,87.7588
1387,88.5319
1388,89.2834
1389,90.0044
1390,90.6862
1391,91.3202
1392,91.8984
1393,92.4133
1394,92.858
1395,93.2269
1396,93.515
1397,93.719
1398,93.8364
1399,93.8663
1400,93.8093
1401,93.6669
1402,93.4424
1403,93.1397
1404,92.7643
1405,92.3223
1406,91.8206
1407,91.2667
1408,90.6684
1409,90.0338
1410,89.3712
1411,88.6887
1412,87.9942
1413,87.2953
1414,86.5994
1415,85.9132
1416,85.2431
1417,84.5949
1418,83.9739
1419,83.385
1420,82.8324
1421,82.3198
1422,81.8505
1423,81.4275
1424,81.0529
1425,80.7289
1426,80.457
1427,80.2385
1428,80.0742
1429,79.9649
1430,79.9107
1431,79.9118
1432,79.9677
1433,80.0781
1434,80.242
1435,80.4584
1436,80.7259
1437,81.0429
1438,81.4073
1439,81.817
1440,82.2693
1441,82.7613
1442,83.2898
1443,83.8511
1444,84.4413
1445,85.0561
1446,85.6907
1447,86.3403
1448,86.9995
1449,87.6627
1450,88.3239
1451,88.9772
1452,89.6164
1453,90.2352
1454,90.8273
1455,91.3865
1456,91.907
1457,92.383
1458,92.8092
1459,93.1809
1460,93.4938
1461,93.7445
1462,93.93
1463,94.0485
1464,94.0988
1465,94.0806
1466,93.9945
1467,93.8418
1468,93.6248
1469,93.3465
1470,93.0104
1471,92.621
1472,92.1828
1473,91.701
1474,91.1811
1475,90.6288
1476,90.0498
1477,89.45
1478,88.8351
1479,88.2108
1480,87.5825
1481,86.9555
1482,86.3348
1483,85.725
1484,85.1305
1485,84.5553
1486,84.0032
1487,83.4773
1488,82.9809
1489,82.5165
1490,82.0866
1491,81.6931
1492,81.3381
1493,81.0228
1494,80.7488
1495,80.5168
1496,80.3279
1497,80.1826
1498,80.0812
1499,80.0239
1500,80.0108
1501,80.0417
1502,80.1162
1503,80.2338
1504,80.3938
1505,80.5952
1506,80.8371
1507,81.118
1508,81.4366
1509,81.7912
1510,82.18
1511,82.6007
1512,83.0513
1513,83.5291
1514,84.0315
1515,84.5554
1516,85.0977
1517,85.6551
1518,86.2238
1519,86.8002
1520,87.3803
1521,87.9599
1522,88.5348
1523,89.1007
1524,89.6531
1525,90.1878
1526,90.7003
1527,91.1864
1528,91.6419
1529,92.0629
1530,92.4458
1531,92.7871
1532,93.0838
1533,93.3334
1534,93.5337
1535,93.6831
1536,93.7803
1537,93.8247
1538,93.8164
1539,93.7556
1540,93.6434
1541,93.4812
1542,93.271
1543,93.0151
1544,92.7164
1545,92.3779
1546,92.003
1547,91.5954
1548,91.1588
1549,90.6973
1550,90.2148
1551,89.7153
1552,89.2029
1553,88.6816
1554,88.1552
1555,87.6276
1556,87.1021
1557,86.5824
1558,86.0717
1559,85.5729
1560,85.089
1561,84.6225
1562,84.1759
1563,83.7514
1564,83.351
1565,82.9765
1566,82.6295
1567,82.3114
1568,82.0234
1569,81.7667
1570,81.5421
1571,81.3504
1572,81.1922
1573,81.0679
1574,80.9778
1575,80.9222
1576,80.9011
1577,80.9143
1578,80.9618
1579,81.0432
1580,81.158
1581,81.3058
1582,81.4858
1583,81.6972
1584,81.9391
1585,82.2104
1586,82.5101
1587,82.8366
1588,83.1887
1589,83.5647
1590,83.9628
1591,84.3813
1592,84.8181
1593,85.271
1594,85.7378
1595,86.2161
1596,86.7033
1597,87.1967
1598,87.6936
1599,88.1911
1600,88.6863
1601,89.1762
1602,89.6577
1603,90.1277
1604,90.5833
1605,91.0212
1606,91.4387
1607,91.8328
1608,92.2008
1609,92.54
1610,92.8481
1611,93.1229
1612,93.3623
1613,93.5647
1614,93.7287
1615,93.8531
1616,93.9372
1617,93.9805
1618,93.9828
1619,93.9444
1620,93.8658
1621,93.7479
1622,93.5917
1623,93.3987
1624,93.1705
1625,92.9093
1626,92.6169
1627,92.2959
1628,91.9486
1629,91.5777
1630,91.1859
1631,90.7759
1632,90.3505
1633,89.9125
1634,89.4648
1635,89.01
1636,88.5509
1637,88.0901
1638,87.6301
1639,87.1734
1640,86.7223
1641,86.279
1642,85.8456
1643,85.4241
1644,85.0162
1645,84.6237
1646,84.2481
1647,83.8909
1648,83.5534
1649,83.2367
1650,82.942
1651,82.6701
1652,82.4219
1653,82.1982
1654,81.9995
1655,81.8264
1656,81.6792
1657,81.5585
1658,81.4643
1659,81.3968
1660,81.3562
1661,81.3423
1662,81.3552
1663,81.3946
1664,81.4604
1665,81.5521
1666,81.6694
1667,81.8119
1668,81.9789
1669,82.1698
1670,82.384
1671,82.6205
1672,82.8787
1673,83.1574
1674,83.4557
1675,83.7725
1676,84.1065
1677,84.4565
1678,84.821
1679,85.1986
1680,85.5879
1681,85.9871
1682,86.3945
1683,86.8085
1684,87.2271
1685,87.6486
1686,88.0708
1687,88.4919
1688,88.9097
1689,89.3224
1690,89.7277
1691,90.1236
1692,90.508
1693,90.879
1694,91.2346
1695,91.5728
1696,91.8917
1697,92.1897
1698,92.4651
1699,92.7162
1700,92.9419
1701,93.1407
1702,93.3117
1703,93.4539
1704,93.5666
1705,93.6493
1706,93.7016
1707,93.7233
1708,93.7146
1709,93.6756
1710,93.6069
1711,93.5089
1712,93.3826
1713,93.2288
1714,93.0487
1715,92.8436
1716,92.6149
1717,92.3639
1718,92.0924
1719,91.8021
1720,91.4946
1721,91.1718
1722,90.8356
1723,90.4877
1724,90.1302
1725,89.7647
1726,89.3933
1727,89.0177
1728,88.6396
1729,88.261
1730,87.8834
1731,87.5085
1732,87.1378
1733,86.7729
1734,86.4151
1735,86.0659
1736,85.7265
1737,85.3981
1738,85.0819
1739,84.7788
1740,84.4898
1741,84.2158
1742,83.9577
1743,83.7161
1744,83.4918
1745,83.2853
1746,83.0971
1747,82.9278
1748,82.7777
1749,82.6472
1750,82.5365
1751,82.4459
1752,82.3755
1753,82.3255
1754,82.2958
1755,82.2865
1756,82.2976
1757,82.3289
1758,82.3803
1759,82.4515
1760,82.5424
1761,82.6526
1762,82.7818
1763,82.9295
1764,83.0953
1765,83.2787
1766,83.4792
1767,83.6961
1768,83.9287
1769,84.1765
1770,84.4385
1771,84.7139
1772,85.002
1773,85.3018
1774,85.6122
1775,85.9324
1776,86.2611
1777,86.5974
1778,86.9399
1779,87.2876
1780,87.6391
1781,87.9931
1782,88.3484
1783,88.7036
1784,89.0572
1785,89.408
1786,89.7545
1787,90.0953
1788,90.4289
1789,90.754
1790,91.0692
1791,91.3731
1792,91.6643
1793,91.9417
1794,92.2039
1795,92.4497
1796,92.6781
1797,92.888
1798,93.0784
1799,93.2485
1800,93.3974
1801,93.5246
1802,93.6294
1803,93.7115
1804,93.7704
1805,93.8059
1806,93.8179
1807,93.8065
1808,93.7718
1809,93.714
1810,93.6335
1811,93.5308
1812,93.4064
1813,93.261
1814,93.0954
1815,92.9104
1816,92.707
1817,92.4862
1818,92.249
1819,91.9967
1820,91.7302
1821,91.4509
1822,91.16
1823,90.8588
1824,90.5485
1825,90.2304
1826,89.9057
1827,89.5759
1828,89.2421
1829,88.9055
1830,88.5675
1831,88.2291
1832,87.8916
1833,87.5561
1834,87.2236
1835,86.8952
1836,86.5719
1837,86.2547
1838,85.9445
1839,85.6421
1840,85.3483
1841,85.064
1842,84.7899
1843,84.5265
1844,84.2747
1845,84.0349
1846,83.8076
1847,83.5935
1848,83.3928
1849,83.2062
1850,83.0338
1851,82.876
1852,82.7332
1853,82.6056
1854,82.4934
1855,82.3967
1856,82.3158
1857,82.2507
1858,82.2015
1859,82.1682
1860,82.1509
1861,82.1496
1862,82.1641
1863,82.1945
1864,82.2405
1865,82.3021
1866,82.3791
1867,82.4713
1868,82.5785
1869,82.7003
1870,82.8365
1871,82.9868
1872,83.1508
1873,83.3282
1874,83.5185
1875,83.7213
1876,83.936
1877,84.1623
1878,84.3995
1879,84.6471
1880,84.9045
1881,85.1711
1882,85.4461
1883,85.7289
1884,86.0188
1885,86.315
1886,86.6168
1887,86.9232
1888,87.2336
1889,87.547
1890,87.8626
1891,88.1795
1892,88.4967
1893,88.8133
1894,89.1284
1895,89.441
1896,89.7501
1897,90.0549
1898,90.3543
1899,90.6473
1900,90.9332
1901,91.2108
1902,91.4793
1903,91.7377
1904,91.9854
1905,92.2213
1906,92.4447
1907,92.6548
1908,92.8509
1909,93.0324
1910,93.1986
1911,93.349
1912,93.4831
1913,93.6004
1914,93.7006
1915,93.7833
1916,93.8483
1917,93.8955
1918,93.9247
1919,93.9359
1920,93.9292
1921,93.9046
1922,93.8624
1923,93.8028
1924,93.726
1925,93.6326
1926,93.5228
1927,93.3973
1928,93.2565
1929,93.101
1930,92.9315
1931,92.7487
1932,92.5533
1933,92.346
1934,92.1275
1935,91.8988
1936,91.6607
1937,91.4139
1938,91.1593
1939,90.8978
1940,90.6303
1941,90.3576
1942,90.0805
1943,89.8
1944,89.5168
1945,89.2318
1946,88.9459
1947,88.6597
1948,88.3742
1949,88.0899
1950,87.8078
1951,87.5285
1952,87.2526
1953,86.9809
1954,86.714
1955,86.4524
1956,86.1968
1957,85.9477
1958,85.7057
1959,85.4712
1960,85.2446
1961,85.0265
1962,84.8173
1963,84.6172
1964,84.4268
1965,84.2462
1966,84.0759
1967,83.9161
1968,83.767
1969,83.6289
1970,83.502
1971,83.3864
1972,83.2823
1973,83.1899
1974,83.1093
1975,83.0406
1976,82.9838
1977,82.939
1978,82.9062
1979,82.8855
1980,82.8768
1981,82.8801
1982,82.8953
1983,82.9225
1984,82.9615
1985,83.0122
1986,83.0745
1987,83.1483
1988,83.2334
1989,83.3296
1990,83.4368
1991,83.5547
1992,83.6831
1993,83.8218
1994,83.9704
1995,84.1288
1996,84.2966
1997,84.4735
1998,84.6592
1999,84.8532
2000,85.0553
