wavelength,transmission 
2600,81.50455
2599,81.3248
2598,81.17017
2597,81.02916
2596,80.88517
2595,80.70893
2594,80.5317
2593,80.37254
2592,80.25676
2591,80.10195
2590,80.00359
2589,79.88017
2588,79.75341
2587,79.69056
2586,79.64345
2585,79.51755
2584,79.45483
2583,79.40342
2582,79.36772
2581,79.41385
2580,79.41603
2579,79.40832
2578,79.42479
2577,79.47692
2576,79.50996
2575,79.57313
2574,79.65685
2573,79.70565
2572,79.76664
2571,79.87153
2570,79.97809
2569,80.11285
2568,80.26546
2567,80.41068
2566,80.52302
2565,80.65741
2564,80.80453
2563,80.94962
2562,81.06987
2561,81.19897
2560,81.27853
2559,81.38346
2558,81.5145
2557,81.58957
2556,81.71017
2555,81.80291
2554,81.8604
2553,81.93752
2552,82.02591
2551,82.08034
2550,82.10912
2549,82.12993
2548,82.12661
2547,82.06071
2546,82.04225
2545,82.04584
2544,81.98407
2543,81.90157
2542,81.75829
2541,81.62878
2540,81.5283
2539,81.47122
2538,81.33821
2537,81.21876
2536,81.08583
2535,80.91451
2534,80.76525
2533,80.6272
2532,80.44385
2531,80.24869
2530,80.10645
2529,79.96346
2528,79.82233
2527,79.71553
2526,79.58794
2525,79.46437
2524,79.32093
2523,79.19026
2522,79.11049
2521,79.05796
2520,78.9828
2519,78.94578
2518,78.88255
2517,78.86691
2516,78.8821
2515,78.92702
2514,78.97556
2513,79.03424
2512,79.09792
2511,79.18664
2510,79.29206
2509,79.45487
2508,79.6051
2507,79.75461
2506,79.95704
2505,80.17918
2504,80.40435
2503,80.65213
2502,80.93271
2501,81.17921
2500,81.43185
2499,81.67453
2498,81.9608
2497,82.2403
2496,82.50926
2495,82.77564
2494,83.03618
2493,83.26131
2492,83.49052
2491,83.71535
2490,83.93233
2489,84.1236
2488,84.28493
2487,84.41095
2486,84.50568
2485,84.60021
2484,84.66298
2483,84.66696
2482,84.66523
2481,84.60752
2480,84.51097
2479,84.39938
2478,84.26137
2477,84.06837
2476,83.87652
2475,83.63116
2474,83.3279
2473,83.00173
2472,82.65522
2471,82.27149
2470,81.85677
2469,81.44576
2468,81.02626
2467,80.5959
2466,80.12467
2465,79.64494
2464,79.17465
2463,78.73609
2462,78.27105
2461,77.81927
2460,77.39388
2459,76.99585
2458,76.59411
2457,76.22065
2456,75.86783
2455,75.51695
2454,75.19903
2453,74.90906
2452,74.65368
2451,74.4224
2450,74.23999
2449,74.0996
2448,73.97584
2447,73.8788
2446,73.8234
2445,73.82796
2444,73.85685
2443,73.93871
2442,74.04863
2441,74.20625
2440,74.39903
2439,74.6276
2438,74.9183
2437,75.26487
2436,75.65001
2435,76.05662
2434,76.50078
2433,76.99402
2432,77.51259
2431,78.06357
2430,78.66518
2429,79.29161
2428,79.91139
2427,80.55595
2426,81.23261
2425,81.94857
2424,82.66861
2423,83.36849
2422,84.07455
2421,84.77762
2420,85.47002
2419,86.12711
2418,86.7673
2417,87.40558
2416,87.99618
2415,88.53005
2414,89.0104
2413,89.42776
2412,89.81115
2411,90.14297
2410,90.41732
2409,90.64952
2408,90.82681
2407,90.92245
2406,90.95087
2405,90.8986
2404,90.79293
2403,90.62647
2402,90.40199
2401,90.12395
2400,89.79943
2399,89.4146
2398,88.98392
2397,88.52415
2396,88.02942
2395,87.50441
2394,86.9647
2393,86.40476
2392,85.83276
2391,85.26676
2390,84.70485
2389,84.13792
2388,83.59519
2387,83.07829
2386,82.58636
2385,82.10274
2384,81.66263
2383,81.26461
2382,80.89193
2381,80.57221
2380,80.29356
2379,80.06364
2378,79.90208
2377,79.77209
2376,79.69267
2375,79.66545
2374,79.67921
2373,79.73877
2372,79.86622
2371,80.02885
2370,80.21025
2369,80.45439
2368,80.75605
2367,81.09101
2366,81.47607
2365,81.93133
2364,82.43151
2363,82.92232
2362,83.44633
2361,84.01965
2360,84.63232
2359,85.2865
2358,85.93679
2357,86.58473
2356,87.23731
2355,87.92276
2354,88.56752
2353,89.22175
2352,89.8561
2351,90.47175
2350,91.02049
2349,91.53026
2348,91.99437
2347,92.43109
2346,92.77822
2345,93.04598
2344,93.2548
2343,93.43338
2342,93.52242
2341,93.52005
2340,93.4337
2339,93.31952
2338,93.13938
2337,92.88591
2336,92.55334
2335,92.15814
2334,91.74966
2333,91.2833
2332,90.7838
2331,90.24503
2330,89.70767
2329,89.11798
2328,88.50599
2327,87.86754
2326,87.29051
2325,86.66448
2324,86.08787
2323,85.50596
2322,84.93212
2321,84.40429
2320,83.89054
2319,83.40422
2318,82.99805
2317,82.62898
2316,82.27556
2315,81.94999
2314,81.70219
2313,81.47643
2312,81.33815
2311,81.28641
2310,81.26852
2309,81.29312
2308,81.34109
2307,81.48457
2306,81.67695
2305,81.93131
2304,82.21323
2303,82.56644
2302,82.9196
2301,83.3604
2300,83.82521
2299,84.34932
2298,84.86376
2297,85.42727
2296,86.00216
2295,86.58113
2294,87.19138
2293,87.7886
2292,88.37608
2291,88.96636
2290,89.5373
2289,90.09069
2288,90.64153
2287,91.15582
2286,91.63438
2285,92.07954
2284,92.47138
2283,92.80986
2282,93.1149
2281,93.34369
2280,93.50038
2279,93.61958
2278,93.67655
2277,93.63076
2276,93.50813
2275,93.35044
2274,93.14681
2273,92.90349
2272,92.57886
2271,92.20934
2270,91.84038
2269,91.39997
2268,90.93744
2267,90.46799
2266,90.03151
2265,89.49612
2264,89.02408
2263,88.55584
2262,88.09534
2261,87.67539
2260,87.27593
2259,86.87637
2258,86.53056
2257,86.21761
2256,85.91546
2255,85.7035
2254,85.48914
2253,85.33471
2252,85.24589
2251,85.195
2250,85.16926
2249,85.18338
2248,85.2662
2247,85.40478
2246,85.59549
2245,85.77451
2244,85.99795
2243,86.24327
2242,86.6146
2241,86.94804
2240,87.34587
2239,87.73333
2238,88.14683
2237,88.59205
2236,89.01639
2235,89.46389
2234,89.93312
2233,90.35815
2232,90.76192
2231,91.13504
2230,91.48521
2229,91.82234
2228,92.1008
2227,92.36028
2226,92.54717
2225,92.6672
2224,92.78351
2223,92.82432
2222,92.82523
2221,92.77973
2220,92.62923
2219,92.43735
2218,92.25978
2217,91.98171
2216,91.7136
2215,91.40446
2214,91.04725
2213,90.66785
2212,90.32317
2211,89.84981
2210,89.4502
2209,89.04472
2208,88.65263
2207,88.26695
2206,87.92583
2205,87.54946
2204,87.22782
2203,86.93557
2202,86.67266
2201,86.4421
2200,86.25397
2199,86.06621
2198,85.96021
2197,85.8856
2196,85.87075
2195,85.87287
2194,85.92349
2193,86.0756
2192,86.20666
2191,86.39692
2190,86.6339
2189,86.90769
2188,87.20966
2187,87.5254
2186,87.91259
2185,88.31683
2184,88.72041
2183,89.17645
2182,89.61888
2181,90.05392
2180,90.51219
2179,90.93073
2178,91.33458
2177,91.76102
2176,92.13123
2175,92.50723
2174,92.83101
2173,93.09716
2172,93.35647
2171,93.55449
2170,93.70678
2169,93.84181
2168,93.91812
2167,93.98229
2166,93.95489
2165,93.92247
2164,93.81272
2163,93.66943
2162,93.47988
2161,93.24718
2160,93.05074
2159,92.78042
2158,92.52651
2157,92.22889
2156,91.9192
2155,91.62041
2154,91.31006
2153,91.03775
2152,90.78631
2151,90.54983
2150,90.32279
2149,90.13019
2148,89.96425
2147,89.81247
2146,89.73497
2145,89.67347
2144,89.65712
2143,89.67114
2142,89.7196
2141,89.80639
2140,89.93348
2139,90.06648
2138,90.25665
2137,90.46977
2136,90.69303
2135,90.95836
2134,91.22149
2133,91.49521
2132,91.77658
2131,92.07752
2130,92.37495
2129,92.67338
2128,92.89387
2127,93.1448
2126,93.38687
2125,93.62031
2124,93.80692
2123,93.93082
2122,94.02674
2121,94.0882
2120,94.11981
2119,94.1148
2118,94.04579
2117,93.92366
2116,93.76765
2115,93.59858
2114,93.39152
2113,93.16829
2112,92.89595
2111,92.58179
2110,92.28296
2109,91.9656
2108,91.62445
2107,91.30093
2106,91.00651
2105,90.71318
2104,90.43563
2103,90.16505
2102,89.9091
2101,89.71349
2100,89.54057
2099,89.40609
2098,89.29714
2097,89.21024
2096,89.19886
2095,89.22372
2094,89.28899
2093,89.39662
2092,89.53086
2091,89.67201
2090,89.82001
2089,89.99631
2088,90.21798
2087,90.50871
2086,90.78216
2085,91.06524
2084,91.30969
2083,91.56426
2082,91.7934
2081,92.02184
2080,92.26852
2079,92.46214
2078,92.59704
2077,92.69106
2076,92.73131
2075,92.71016
2074,92.637
2073,92.52199
2072,92.36597
2071,92.11841
2070,91.82543
2069,91.47804
2068,91.07786
2067,90.65425
2066,90.193
2065,89.68987
2064,89.18204
2063,88.6524
2062,88.11458
2061,87.61051
2060,87.12836
2059,86.64638
2058,86.18098
2057,85.74612
2056,85.33826
2055,84.99631
2054,84.74096
2053,84.51116
2052,84.29875
2051,84.14479
2050,84.07238
2049,84.04191
2048,84.07084
2047,84.17126
2046,84.3464
2045,84.56498
2044,84.82315
2043,85.15343
2042,85.55394
2041,86.01506
2040,86.50249
2039,86.97281
2038,87.48178
2037,88.02348
2036,88.59783
2035,89.17737
2034,89.70814
2033,90.19578
2032,90.65916
2031,91.08923
2030,91.44457
2029,91.74567
2028,91.97542
2027,92.11724
2026,92.16155
2025,92.10747
2024,91.9837
2023,91.77578
2022,91.46879
2021,91.08234
2020,90.58296
2019,90.01147
2018,89.40664
2017,88.75169
2016,88.10821
2015,87.4451
2014,86.76071
2013,86.08526
2012,85.38313
2011,84.73137
2010,84.12032
2009,83.53428
2008,82.97683
2007,82.46325
2006,82.00951
2005,81.62806
2004,81.32117
2003,81.07101
2002,80.90156
2001,80.81058
2000,80.78278
1999,80.83155
1998,80.96816
1997,81.19968
1996,81.49147
1995,81.84152
1994,82.26137
1993,82.78044
1992,83.33973
1991,83.90961
1990,84.52737
1989,85.1716
1988,85.80629
1987,86.43577
1986,87.0533
1985,87.65743
1984,88.23631
1983,88.75115
1982,89.19757
1981,89.58162
1980,89.88136
1979,90.07809
1978,90.21178
1977,90.2686
1976,90.25364
1975,90.13388
1974,89.92575
1973,89.64713
1972,89.30138
1971,88.9064
1970,88.43384
1969,87.93809
1968,87.45137
1967,86.9667
1966,86.44068
1965,85.91915
1964,85.41733
1963,84.9925
1962,84.55029
1961,84.18122
1960,83.90355
1959,83.68032
1958,83.47949
1957,83.37398
1956,83.35693
1955,83.4045
1954,83.52622
1953,83.75753
1952,84.02463
1951,84.37164
1950,84.77848
1949,85.28983
1948,85.77928
1947,86.36764
1946,86.99459
1945,87.59297
1944,88.26157
1943,88.88549
1942,89.44466
1941,90.05065
1940,90.61543
1939,91.13484
1938,91.51453
1937,91.82397
1936,92.08181
1935,92.28475
1934,92.38375
1933,92.38783
1932,92.28987
1931,92.09615
1930,91.85969
1929,91.54175
1928,91.11346
1927,90.63536
1926,90.11522
1925,89.5591
1924,89.02391
1923,88.50714
1922,87.98532
1921,87.40204
1920,86.80116
1919,86.28096
1918,85.85668
1917,85.46651
1916,85.23919
1915,85.08505
1914,84.95581
1913,84.85083
1912,84.80138
1911,84.85725
1910,84.98146
1909,85.1974
1908,85.50978
1907,85.84563
1906,86.36229
1905,86.85447
1904,87.4089
1903,87.96098
1902,88.54334
1901,89.1612
1900,89.83858
1899,90.47334
1898,91.14786
1897,91.70117
1896,92.19255
1895,92.66263
1894,93.12384
1893,93.5325
1892,93.87606
1891,94.15648
1890,94.32829
1889,94.43299
1888,94.51936
1887,94.53538
1886,94.47219
1885,94.38834
1884,94.2132
1883,93.96393
1882,93.76797
1881,93.53779
1880,93.245
1879,93.03387
1878,92.80929
1877,92.55729
1876,92.33432
1875,92.17277
1874,91.97776
1873,91.87762
1872,91.74126
1871,91.65713
1870,91.62752
1869,91.72134
1868,91.71949
1867,91.83467
1866,91.92562
1865,92.06024
1864,92.21992
1863,92.40702
1862,92.63485
1861,92.78213
1860,92.92377
1859,93.09028
1858,93.20894
1857,93.35057
1856,93.43854
1855,93.46856
1854,93.53992
1853,93.56888
1852,93.59622
1851,93.59164
1850,93.61354
1849,93.58131
1848,93.6162
1847,93.50964
1846,93.42543
1845,93.4196
1844,93.27405
1843,93.28902
1842,93.33866
1841,93.2594
1840,93.30452
1839,93.35029
1838,93.29015
1837,93.36724
1836,93.45598
1835,93.53439
1834,93.60518
1833,93.66239
1832,93.75734
1831,93.80592
1830,93.85095
1829,93.81797
1828,93.7956
1827,93.70828
1826,93.58626
1825,93.34996
1824,93.04058
1823,92.8553
1822,92.63587
1821,92.25605
1820,91.8021
1819,91.20775
1818,90.74093
1817,90.23581
1816,89.79857
1815,89.29997
1814,88.76851
1813,88.29849
1812,87.83697
1811,87.43713
1810,87.05074
1809,86.74069
1808,86.52169
1807,86.34828
1806,86.19986
1805,86.20198
1804,86.27482
1803,86.40749
1802,86.59791
1801,86.86593
1800,87.24536
1799,87.6623
1798,88.13856
1797,88.63002
1796,89.09204
1795,89.57729
1794,90.019
1793,90.44847
1792,90.79144
1791,91.05728
1790,91.20924
1789,91.26772
1788,91.17103
1787,90.91227
1786,90.51468
1785,89.96379
1784,89.31555
1783,88.54362
1782,87.66136
1781,86.76589
1780,85.74952
1779,84.65981
1778,83.57237
1777,82.53776
1776,81.51261
1775,80.60622
1774,79.73001
1773,78.94804
1772,78.24321
1771,77.65653
1770,77.14653
1769,76.77485
1768,76.53035
1767,76.38842
1766,76.36712
1765,76.51189
1764,76.77226
1763,77.14207
1762,77.61974
1761,78.21638
1760,78.90111
1759,79.64668
1758,80.46872
1757,81.3029
1756,82.15317
1755,82.98807
1754,83.74974
1753,84.46715
1752,85.08545
1751,85.52284
1750,85.84272
1749,86.01381
1748,86.02221
1747,85.8787
1746,85.58272
1745,85.1546
1744,84.57168
1743,83.94092
1742,83.21687
1741,82.46772
1740,81.6988
1739,80.97444
1738,80.23872
1737,79.58031
1736,79.00759
1735,78.52263
1734,78.09848
1733,77.80717
1732,77.60085
1731,77.48633
1730,77.52818
1729,77.66917
1728,77.92928
1727,78.27329
1726,78.69306
1725,79.1646
1724,79.71008
1723,80.33503
1722,80.95789
1721,81.5848
1720,82.17779
1719,82.65894
1718,83.07007
1717,83.41401
1716,83.62999
1715,83.72416
1714,83.68217
1713,83.45919
1712,83.11534
1711,82.66994
1710,82.11976
1709,81.50713
1708,80.8453
1707,80.17499
1706,79.49358
1705,78.81836
1704,78.18053
1703,77.61981
1702,77.12573
1701,76.75512
1700,76.46313
1699,76.26513
1698,76.15841
1697,76.16286
1696,76.25773
1695,76.47243
1694,76.74178
1693,77.03495
1692,77.38495
1691,77.74551
1690,78.11752
1689,78.47072
1688,78.79794
1687,79.05805
1686,79.21386
1685,79.25738
1684,79.21211
1683,79.05571
1682,78.76809
1681,78.3537
1680,77.82881
1679,77.2015
1678,76.51499
1677,75.79906
1676,75.06131
1675,74.33042
1674,73.62619
1673,73.00937
1672,72.48401
1671,72.02635
1670,71.67954
1669,71.45348
1668,71.35514
1667,71.39296
1666,71.54193
1665,71.8184
1664,72.21578
1663,72.69621
1662,73.2417
1661,73.841
1660,74.42693
1659,74.99946
1658,75.54344
1657,75.97323
1656,76.30486
1655,76.51895
1654,76.55461
1653,76.4142
1652,76.08934
1651,75.57524
1650,74.90609
1649,74.10766
1648,73.20734
1647,72.16937
1646,71.08054
1645,70.00168
1644,68.89531
1643,67.85348
1642,66.87173
1641,65.98354
1640,65.21778
1639,64.59744
1638,64.14791
1637,63.86141
1636,63.75556
1635,63.81625
1634,64.03379
1633,64.44137
1632,64.96757
1631,65.6117
1630,66.37822
1629,67.2072
1628,68.0888
1627,68.99015
1626,69.85377
1625,70.6605
1624,71.36747
1623,71.91932
1622,72.29446
1621,72.48647
1620,72.5079
1619,72.3337
1618,71.99404
1617,71.52423
1616,70.95469
1615,70.32506
1614,69.64654
1613,68.96735
1612,68.3342
1611,67.76915
1610,67.30631
1609,66.96395
1608,66.77199
1607,66.74198
1606,66.86203
1605,67.15168
1604,67.58698
1603,68.18322
1602,68.93297
1601,69.78507
1600,70.72342
1599,71.70729
1598,72.67086
1597,73.56256
1596,74.32718
1595,74.87839
1594,75.18546
1593,75.23059
1592,74.97226
1591,74.43348
1590,73.62468
1589,72.57552
1588,71.34986
1587,69.99263
1586,68.55964
1585,67.16214
1584,65.83162
1583,64.6201
1582,63.54533
1581,62.61419
1580,61.90454
1579,61.41382
1578,61.12116
1577,61.05031
1576,61.21319
1575,61.60299
1574,62.19749
1573,63.01943
1572,63.99504
1571,65.10206
1570,66.35125
1569,67.65986
1568,68.95757
1567,70.21687
1566,71.35844
1565,72.39162
1564,73.18707
1563,73.66064
1562,73.80795
1561,73.62261
1560,73.16927
1559,72.4194
1558,71.48625
1557,70.35549
1556,69.1773
1555,68.003
1554,66.89003
1553,65.86594
1552,64.98211
1551,64.34138
1550,63.87286
1549,63.60633
1548,63.58075
1547,63.76729
1546,64.18801
1545,64.78929
1544,65.57299
1543,66.47317
1542,67.43882
1541,68.49781
1540,69.47573
1539,70.36541
1538,71.09208
1537,71.64649
1536,71.97934
1535,72.05998
1534,71.90106
1533,71.50337
1532,70.90429
1531,70.18786
1530,69.38031
1529,68.46125
1528,67.57736
1527,66.72033
1526,66.04278
1525,65.47894
1524,65.07923
1523,64.88649
1522,64.90801
1521,65.15813
1520,65.60199
1519,66.29885
1518,67.06936
1517,67.98354
1516,68.96658
1515,69.90549
1514,70.7342
1513,71.39228
1512,71.79091
1511,71.83185
1510,71.49294
1509,70.76744
1508,69.72317
1507,68.34137
1506,66.75444
1505,65.11846
1504,63.37962
1503,61.65492
1502,60.05224
1501,58.53999
1500,57.2702
1499,56.24344
1498,55.43946
1497,54.84815
1496,54.52412
1495,54.45965
1494,54.61169
1493,54.96816
1492,55.49134
1491,56.23057
1490,57.02309
1489,57.903
1488,58.75171
1487,59.6247
1486,60.29656
1485,60.81367
1484,61.01885
1483,60.9439
1482,60.58232
1481,59.94686
1480,59.03892
1479,57.97256
1478,56.85764
1477,55.70259
1476,54.59233
1475,53.51035
1474,52.75175
1473,52.12913
1472,51.75265
1471,51.61895
1470,51.76082
1469,52.20244
1468,52.86344
1467,53.86866
1466,55.08563
1465,56.54808
1464,58.15287
1463,59.86264
1462,61.61744
1461,63.3284
1460,64.72859
1459,65.91889
1458,66.70919
1457,67.02741
1456,66.92469
1455,66.36014
1454,65.48333
1453,64.21811
1452,62.83502
1451,61.28625
1450,59.7272
1449,58.20891
1448,56.8859
1447,55.67545
1446,54.83959
1445,54.18886
1444,53.67885
1443,53.50423
1442,53.58628
1441,53.96597
1440,54.54178
1439,55.43024
1438,56.43899
1437,57.61892
1436,58.92019
1435,60.29028
1434,61.71952
1433,63.14126
1432,64.42062
1431,65.64579
1430,66.75917
1429,67.71356
1428,68.53366
1427,69.26001
1426,69.8601
1425,70.40177
1424,70.81246
1423,71.18977
1422,71.50403
1421,71.7583
1420,71.96537
1419,72.10791
1418,72.12744
1417,72.03008
1416,71.78448
1415,71.42259
1414,70.88487
1413,70.04502
1412,69.04958
1411,67.99581
1410,66.9063
1409,65.71687
1408,64.49221
1407,63.21397
1406,62.15639
1405,61.24158
1404,60.50241
1403,59.93318
1402,59.55419
1401,59.60372
1400,59.85511
1399,60.24083
1398,60.64986
1397,61.35956
1396,62.48111
1395,63.59153
1394,64.79529
1393,65.77284
1392,66.74897
1391,67.7457
1390,68.44259
1389,68.95616
1388,69.30385
1387,69.27763
1386,69.10867
1385,68.78631
1384,68.4328
1383,68.05894
1382,67.5987
1381,67.06162
1380,66.75042
1379,66.59249
1378,66.5281
1377,66.55077
1376,66.60345
1375,66.70474
1374,66.67022
1373,66.6136
1372,66.51793
1371,66.35514
1370,66.10686
1369,65.65267
1368,65.2161
1367,64.69823
1366,64.17849
1365,63.76527
1364,63.40086
1363,63.10064
1362,62.98758
1361,63.04244
1360,63.24446
1359,63.54377
1358,64.23634
1357,65.02805
1356,65.84405
1355,66.77961
1354,67.41464
1353,67.87317
1352,68.04498
1351,67.95116
1350,67.51526
1349,66.73791
1348,65.62233
1347,64.27786
1346,62.80953
1345,61.2969
1344,59.95779
1343,58.8731
1342,58.01518
1341,57.39799
1340,57.11282
1339,57.17828
1338,57.60131
1337,58.32958
1336,59.33467
1335,60.57326
1334,61.93429
1333,63.33341
1332,64.63914
1331,65.72394
1330,66.36814
1329,66.55909
1328,66.22382
1327,65.37894
1326,64.13094
1325,62.53624
1324,60.79943
1323,59.03556
1322,57.36355
1321,55.93361
1320,54.8023
1319,54.02397
1318,53.68552
1317,53.73399
1316,54.17929
1315,55.00851
1314,56.13276
1313,57.50124
1312,58.99899
1311,60.59616
1310,62.07597
1309,63.34347
1308,64.28212
1307,64.81236
1306,64.93803
1305,64.70776
1304,64.16877
1303,63.45417
1302,62.66601
1301,61.9479
1300,61.40144
1299,61.04306
1298,60.8949
1297,60.97931
1296,61.32622
1295,61.85065
1294,62.50667
1293,63.23633
1292,63.94394
1291,64.53084
1290,64.91587
1289,65.07318
1288,64.97746
1287,64.62774
1286,64.09028
1285,63.42031
1284,62.70909
1283,62.04061
1282,61.51445
1281,61.21313
1280,61.14635
1279,61.32101
1278,61.74268
1277,62.34341
1276,63.00337
1275,63.63261
1274,64.15201
1273,64.41986
1272,64.33111
1271,63.86113
1270,63.00402
1269,61.84915
1268,60.49764
1267,59.09976
1266,57.75676
1265,56.57021
1264,55.7138
1263,55.20491
1262,55.02752
1261,55.23332
1260,55.8277
1259,56.71136
1258,57.82392
1257,59.09874
1256,60.40907
1255,61.62516
1254,62.61141
1253,63.18345
1252,63.26725
1251,62.88453
1250,62.05263
1249,60.88743
1248,59.52394
1247,58.14588
1246,56.87513
1245,55.79563
1244,55.00864
1243,54.57941
1242,54.54904
1241,54.89413
1240,55.59142
1239,56.55237
1238,57.71073
1237,58.99143
1236,60.25271
1235,61.35623
1234,62.22602
1233,62.78248
1232,62.98452
1231,62.87562
1230,62.54258
1229,62.07803
1228,61.56502
1227,61.11375
1226,60.77417
1225,60.56749
1224,60.52805
1223,60.63987
1222,60.89572
1221,61.21255
1220,61.56872
1219,61.89991
1218,62.15237
1217,62.3154
1216,62.38494
1215,62.3811
1214,62.3439
1213,62.30743
1212,62.28915
1211,62.31169
1210,62.38091
1209,62.50972
1208,62.66999
1207,62.79663
1206,62.87221
1205,62.84489
1204,62.63788
1203,62.20278
1202,61.61202
1201,60.89575
1200,60.04813
1199,59.09399
1198,58.23697
1197,57.53934
1196,57.00644
1195,56.70534
1194,56.62443
1193,56.74408
1192,57.02902
1191,57.4476
1190,57.91466
1189,58.36298
1188,58.69168
1187,58.86496
1186,58.88953
1185,58.75768
1184,58.51195
1183,58.18329
1182,57.86152
1181,57.6095
1180,57.44444
1179,57.38851
1178,57.42979
1177,57.52632
1176,57.64904
1175,57.74618
1174,57.7431
1173,57.59318
1172,57.26329
1171,56.75161
1170,56.13902
1169,55.48125
1168,54.81053
1167,54.2837
1166,53.91801
1165,53.82588
1164,54.04749
1163,54.57413
1162,55.38564
1161,56.38839
1160,57.54691
1159,58.70196
1158,59.72876
1157,60.44458
1156,60.87771
1155,60.99307
1154,60.82609
1153,60.50096
1152,60.1112
1151,59.77155
1150,59.60806
1149,59.65527
1148,59.92915
1147,60.38247
1146,60.97605
1145,61.5398
1144,61.97927
1143,62.21584
1142,62.18319
1141,61.90996
1140,61.44025
1139,60.9012
1138,60.37967
1137,60.01098
1136,59.84026
1135,59.96772
1134,60.32644
1133,60.82815
1132,61.40028
1131,61.92137
1130,62.24995
1129,62.15792
1128,61.58301
1127,60.58976
1126,59.24029
1125,57.73439
1124,56.22726
1123,55.05155
1122,54.22561
1121,53.84683
1120,54.05932
1119,54.77893
1118,55.94619
1117,57.38356
1116,58.85158
1115,60.04518
1114,60.71741
1113,60.73306
1112,60.0769
1111,58.95167
1110,57.60252
1109,56.33489
1108,55.30538
1107,54.73516
1106,54.66141
1105,55.09518
1104,55.94295
1103,57.04914
1102,58.18091
1101,58.99734
1100,59.30217
1099,59.05432
1098,58.22031
1097,56.94723
1096,55.49604
1095,54.15737
1094,53.03309
1093,52.34699
1092,52.22062
1091,52.64446
1090,53.66796
1089,55.12209
1088,56.94635
1087,58.67417
1086,60.3355
1085,61.56459
1084,62.23332
1083,62.34044
1082,61.92591
1081,61.31713
1080,60.65186
1079,60.162
1078,59.92254
1077,60.01648
1076,60.38404
1075,60.92485
1074,61.52625
1073,62.14513
1072,62.66945
1071,63.05312
1070,63.37459
1069,63.64998
1068,63.94369
1067,64.26473
1066,64.54644
1065,64.70177
1064,64.69174
1063,64.38779
1062,63.77043
1061,62.9455
1060,61.90133
1059,60.96274
1058,60.21205
1057,59.8055
1056,59.77828
1055,60.12992
1054,60.76181
1053,61.40136
1052,61.86109
1051,61.77194
1050,60.90905
1049,59.49116
1048,57.53837
1047,55.52035
1046,53.64354
1045,52.35977
1044,51.84011
1043,52.14473
1042,53.28136
1041,54.90038
1040,56.70261
1039,57.83637
1038,57.7641
1037,56.08359
1036,53.274
1035,49.83971
1034,46.24898
1033,43.44046
1032,41.49753
1031,40.79008
1030,41.34207
1029,43.22786
1028,46.21747
1027,49.99886
1026,54.10831
1025,57.15453
1024,58.26572
1023,57.38901
1022,54.77113
1021,51.48503
1020,48.18796
1019,45.73916
1018,44.64
1017,44.76684
1016,46.23404
1015,48.82339
1014,52.44341
1013,56.30137
1012,59.38521
1011,61.25445
1010,61.41665
1009,60.06188
1008,57.73565
1007,55.55507
1006,53.91607
1005,53.33598
1004,53.95835
1003,55.78737
1002,58.47702
1001,61.58509
1000,64.28677
999,66.01338
998,66.40506
997,65.58116
996,64.1265
995,62.68914
994,61.66964
993,61.41472
992,61.96719
991,63.15563
990,64.69255
989,66.24901
988,67.3789
987,68.06931
986,68.23064
985,67.93764
984,67.386
983,66.68888
982,65.86277
981,64.89634
980,63.86868
979,62.78533
978,61.71812
977,60.84198
976,60.35859
975,60.46761
974,61.1974
973,62.39047
972,63.79578
971,65.09485
970,65.75464
969,65.45124
968,64.24145
967,62.33481
966,60.18069
965,58.55656
964,57.67665
963,57.90655
962,59.36846
961,61.80649
960,64.94566
959,67.86622
958,70.04542
957,71.22621
956,71.32606
955,70.77789
954,70.20747
953,70.11534
952,70.74147
951,71.97918
950,73.53218
949,74.81361
948,75.39653
947,75.23148
946,74.56958
945,73.805
944,73.42535
943,73.67369
942,74.50909
941,75.58515
940,76.4871
939,76.64996
938,75.8201
937,74.20397
936,72.30363
935,70.66312
934,69.82907
933,69.98614
932,71.01875
931,72.53812
930,74.00948
929,74.66481
928,74.13637
927,72.59841
926,70.36589
925,68.17267
924,66.80487
923,66.55407
922,67.45907
921,69.18112
920,71.35206
919,73.22843
918,74.38922
917,74.87612
916,74.9679
915,75.09982
914,75.6461
913,76.76469
912,78.21389
911,79.58947
910,80.51093
909,80.80582
908,80.53512
907,80.04849
906,79.7353
905,79.8638
904,80.44681
903,81.27327
902,82.09339
901,82.62806
900,82.78694
899,82.71375
898,82.59339
897,82.58969
896,82.74514
895,82.95594
894,83.02488
893,82.79069
892,82.20141
891,81.35049
890,80.37908
889,79.41505
888,78.51882
887,77.61849
886,76.55492
885,75.23699
884,73.73497
883,72.33955
882,71.35052
881,70.91296
880,71.00779
879,71.324
878,71.36619
877,70.75268
876,69.35032
875,67.34664
874,65.31487
873,63.98039
872,63.76958
871,64.79819
870,66.65263
869,68.56289
868,69.87019
867,70.19647
866,69.62404
865,68.4567
864,67.36828
863,67.03749
862,67.69902
861,69.40583
860,72.76403
859,79.32124
858,85.98065
857,88.24339
856,86.61627
855,83.93123
854,82.67318
853,83.57367
852,85.87927
851,87.56087
850,86.86628
849,83.67506
848,79.59058
847,76.79463
846,76.71195
845,79.34751
844,83.00853
843,84.85016
842,82.78461
841,76.95375
840,69.42208
839,62.85979
838,58.80591
837,57.53666
836,58.74525
835,61.51147
834,64.76018
833,67.45998
832,68.99712
831,69.45177
830,69.12326
829,68.41078
828,67.71467
827,67.33841
826,67.8118
825,69.75436
824,73.42136
823,78.43828
822,83.72507
821,87.59447
820,88.9445
819,88.3234
818,87.55488
817,88.32609
816,90.90263
815,93.3763
814,92.70814
813,87.85632
812,80.44833
811,73.48548
810,69.33921
809,68.65778
808,70.24028
807,71.42271
806,69.76146
805,65.20747
804,60.36964
803,57.72865
802,58.34689
801,61.42595
800,63.84953
799,61.83596
798,54.91733
797,46.44803
796,40.32101
795,38.37458
794,41.04697
793,48.01026
792,56.88052
791,62.12642
790,59.64952
789,51.70091
788,44.12502
787,40.5436
786,41.94044
785,48.29634
784,58.11271
783,67.92816
782,73.31655
781,72.78486
780,69.12684
779,66.20308
778,66.1871
777,69.55268
776,75.5838
775,82.77833
774,89.03718
773,92.13183
772,91.06904
771,87.18583
770,83.2732
769,82.19582
768,85.14054
767,89.89054
766,91.19617
765,85.90622
764,76.50657
763,68.37693
762,65.29773
761,67.89427
760,73.87183
759,77.58702
758,74.44969
757,66.25333
756,59.32913
755,57.88156
754,62.95365
753,72.60632
752,81.18393
751,83.29776
750,79.59502
749,76.03411
748,77.68373
747,84.73703
746,91.30645
745,91.36727
744,85.88937
743,81.00549
742,81.39996
741,86.71035
740,91.11033
739,88.25405
738,79.09241
737,70.43657
736,67.35813
735,70.12121
734,74.65157
733,75.54861
732,70.99539
731,63.88255
730,58.19729
729,55.8898
728,56.54292
727,58.79746
726,61.46008
725,63.49503
724,63.85379
723,62.18819
722,59.32379
721,57.61951
720,59.9149
719,67.92994
718,78.62953
717,83.94961
716,79.32871
715,70.82259
714,67.61126
713,73.23942
712,84.35951
711,91.23169
710,87.42136
709,78.67966
708,75.89318
707,81.46161
706,86.09635
705,79.2614
704,64.39876
703,52.5092
702,48.62708
701,51.25459
700,54.97372
699,53.76422
698,47.54979
697,41.89979
696,40.75624
695,43.59221
694,46.82228
693,47.17482
692,44.8912
691,42.93335
690,43.55445
689,46.30262
688,48.67625
687,49.53618
686,49.7982
685,51.41893
684,54.66024
683,58.01218
682,60.33123
681,62.46521
680,66.16319
679,71.86715
678,77.97389
677,82.24299
676,84.45506
675,86.67304
674,89.90523
673,93.71066
672,96.47833
671,95.87408
670,90.87787
669,83.60239
668,78.67121
667,79.89808
666,86.82911
665,93.53753
664,93.03411
663,87.16483
662,83.22846
661,85.77589
660,92.42111
659,95.60547
658,92.27133
657,88.18676
656,88.92084
655,93.56813
654,96.59325
653,95.3177
652,92.70872
651,92.6629
650,94.64569
649,95.29105
648,92.55229
647,88.55314
646,87.01261
645,89.37004
644,92.84901
643,93.44961
642,90.17126
641,86.36275
640,86.54251
639,91.46034
638,95.32253
637,93.49685
636,89.25152
635,88.96414
634,92.99743
633,96.00803
632,94.85407
631,93.32688
630,94.81537
629,95.59108
628,90.8763
627,84.95187
626,85.16841
625,90.84086
624,92.71615
623,86.82305
622,80.67448
621,82.07944
620,88.92391
619,91.91304
618,88.01981
617,84.28808
616,86.77473
615,92.82118
614,96.23027
613,95.92422
612,95.46567
611,96.58766
610,97.53054
609,96.19778
608,93.01205
607,90.96941
606,92.34175
605,95.49652
604,97.02244
603,95.92335
602,94.68338
601,95.5527
600,97.46162
599,97.71848
598,96.81061
597,96.98587
596,98.13741
595,98.78583
594,98.70593
593,98.65101
592,99.02641
591,99.42453
590,99.4337
589,99.38933
588,99.4341
587,99.43416
586,99.42267
585,99.55713
584,99.49267
583,99.41104
582,99.47006
581,99.47309
580,99.46071
579,99.54723
578,99.5135
577,99.40243
576,99.45081
575,99.53567
574,99.51375
573,99.51437
572,99.4834
571,99.49926
570,97.81501
569,97.63078
568,97.89881
567,97.95474
566,98.60501
565,97.37145
564,97.7237
563,99.06892
562,97.46437
561,97.82006
560,97.77939
559,97.79779
558,98.14479
557,97.83833
556,97.74479
555,97.47262
554,98.06323
553,97.70648
552,98.13362
551,98.23567
550,98.15873
549,98.35469
548,98.02286
547,98.3342
546,99.08614
545,98.63885
544,98.31457
543,97.71146
542,99.07391
541,97.45213
540,97.82505
539,97.76715
538,97.80278
537,98.13256
536,97.84332
535,97.73255
534,97.47761
533,98.051
532,97.71146
531,98.12138
530,97.74066
529,97.6465
528,97.85968
527,97.51062
526,98.33918
525,98.54263
524,98.64383
523,98.30234
522,98.33918
521,99.07391
520,98.64383
519,98.30234
518,97.81987
517,97.66818
516,97.94632
515,97.9596
514,98.64242
513,97.41895
512,97.72856
511,99.10632
510,97.51187
509,98.82492
508,98.81679
507,97.8453
506,98.14965
505,97.87573
504,97.79229
503,97.47748
502,98.10063
501,97.75398
500,98.13847
499,97.77308
498,97.70623
497,97.85955
496,97.56026
495,97.4817
494,97.81
493,97.77625
492,97.46208
491,97.81632
490,98.21131
489,97.59963
488,97.92991
487,97.90456
486,97.95028
485,97.23742
484,97.88072
483,97.78005
482,97.48246
481,98.0884
480,97.75897
479,98.12624
478,97.77806
477,97.694
476,97.86454
475,97.54803
474,98.38669
473,98.56
472,98.68123
471,98.34984
470,98.34404
469,99.11131
468,98.69133
467,98.3072
466,98.17482
465,97.92822
464,97.78491
463,97.51987
462,98.1359
461,97.76382
460,98.16364
459,97.82557
458,97.69886
457,97.90194
456,97.59553
455,97.99154
454,97.71617
453,97.32874
452,97.9547
451,97.98144
450,98.75881
449,98.29619
448,97.9446
447,97.90234
446,97.82232
445,97.93308
444,97.82231
443,97.56737
442,98.14076
441,97.80123
440,98.21114
439,98.33042
438,98.23626
437,98.44944
436,98.10039
435,98.42895
434,99.16367
433,98.73359
432,98.3921
431,98.42895
430,99.16367
429,98.73359
428,98.3921
427,98.13742
426,98.38072
425,98.28005
424,97.98246
423,97.80156
422,97.75897
421,97.73626
420,97.94944
419,97.60039
418,98.42895
417,98.30456
416,98.35028
415,99.57391
414,97.95213
413,98.32505
412,98.26715
411,89.85915
410,17.67035
409,0.24081
408,0.01821
407,0.00093
406,0.00035
405,0.0001
404,0.00038
403,0.00003
402,0.00051
401,0.02541
400,0.17886
399,22.5075
398,91.44974
397,98.051
396,98.38036
395,98.283
394,98.30549
393,97.6465
392,97.85968
391,97.51062
390,98.04177
389,97.41612
388,97.82505
387,97.76715
386,97.80278
385,97.63577
384,97.88658
383,97.95973
382,98.59278
381,97.37644
380,97.71146
379,99.07391
378,97.45213
377,97.82505
376,97.76715
375,97.80278
374,98.13256
373,97.84332
372,97.73255
371,97.47761
370,98.051
369,97.71146
368,98.12138
367,97.74066
366,97.6465
365,97.85968
364,97.51062
363,98.33918
362,99.07391
361,98.64383
360,98.30234
359,97.66176
358,97.67974
357,97.41525
356,96.47277
355,94.78001
354,91.90662
353,87.50704
352,81.67605
351,74.9791
350,68.55959
349,65.75174
348,67.96205
347,71.723
346,73.28841
345,72.68524
344,72.4404
343,72.4227
342,70.30726
341,66.61167
340,63.12238
339,59.4421
338,54.21026
337,48.97038
336,46.06305
335,44.58904
334,42.1674
333,37.7602
332,33.07493
331,30.25947
330,28.81582
329,27.42607
328,25.28084
327,22.57968
326,19.92195
325,17.81481
324,16.53358
323,15.37717
322,14.16059
321,13.59234
320,14.76572
319,16.95557
318,17.99323
317,17.23104
316,15.59639
315,14.20143
314,13.30456
313,11.89412
312,10.04199
311,8.93947
310,7.86698
309,5.52109
308,2.88678
307,1.32755
306,0.6573
305,0.27313
304,0.05815
303,0.00599
302,0.00299
301,0.00299
300,0.00168
299,0.00372
298,0.00709
297,0.00012
296,0.00397
295,0.00048
294,0.00096
293,0.0041
292,0.00482
291,0.00265
290,0.0041
289,0.00024
288,0.00278
287,0.00423
286,0.00738
285,0.00061
284,0.0046
283,0.00012
282,0.00109
281,0.00449
280,0.00692
279,0.0017
278,0.00657
277,0.00024
276,0.00219
275,0.00414
274,0.00743
273,0.00024
272,0.00451
271,0.00049
270,0.00146
269,0.00501
268,0.00733
267,0.00098
266,0.00171
265,0.00196
264,0.00147
263,0.00538
262,0.00685
261,0.0022
260,0.00551
259,0.00147
258,0.00061
257,0.00626
256,0.00467
255,0.00529
254,0.00541
253,0.00172
252,0.0016
251,0.00567
250,0.00506
249,0.00334
248,0.00569
247,0.00124
246,0.00012
245,0.00607
244,0.00521
243,0.00298
242,0.00483
241,0.00161
240,0.00136
239,0.0057
238,0.00546
237,0.00545
236,0.00471
235,0.00223
234,0.00136
233,0.0062
232,0.00596
231,0.0036
230,0.00559
229,0.00224
228,0.00187
227,0.00661
226,0.00463
225,0.00276
224,0.00564
223,0.00201
222,0.00214
221,0.00593
220,0.0067
219,0.00177
218,0.00571
217,0.00127
216,0.00293
215,0.00498
214,0.00563
213,0.00525
212,0.00603
211,0.00129
210,0.00283
209,0.00632
208,0.00841
207,0.00298
206,0.00701
205,0.00273
204,0.00378
203,0.00744
202,0.00928
201,0.0076
200,0.01063
